Wavelength(nm)	n	k
330	1.54375	0
335	1.54252	0
340	1.54134	0
345	1.54023	0
350	1.53917	0
355	1.53815	0
360	1.53719	0
365	1.53627	0
370	1.53539	0
375	1.53455	0
380	1.53374	0
385	1.53297	0
390	1.53224	0
395	1.53153	0
400	1.53085	0
405	1.5302	0
410	1.52957	0
415	1.52897	0
420	1.52839	0
425	1.52783	0
430	1.52729	0
435	1.52677	0
440	1.52627	0
445	1.52579	0
450	1.52532	0
455	1.52487	0
460	1.52443	0
465	1.52401	0
470	1.5236	0
475	1.52321	0
480	1.52283	0
485	1.52246	0
490	1.5221	0
495	1.52175	0
500	1.52141	0
505	1.52109	0
510	1.52077	0
515	1.52046	0
520	1.52016	0
525	1.51987	0
530	1.51958	0
535	1.51931	0
540	1.51904	0
545	1.51878	0
550	1.51852	0
555	1.51827	0
560	1.51803	0
565	1.5178	0
570	1.51757	0
575	1.51734	0
580	1.51712	0
585	1.51691	0
590	1.5167	0
595	1.51649	0
600	1.51629	0
605	1.5161	0
610	1.51591	0
615	1.51572	0
620	1.51554	0
625	1.51536	0
630	1.51519	0
635	1.51501	0
640	1.51485	0
645	1.51468	0
650	1.51452	0
655	1.51436	0
660	1.51421	0
665	1.51405	0
670	1.51391	0
675	1.51376	0
680	1.51361	0
685	1.51347	0
690	1.51333	0
695	1.5132	0
700	1.51306	0
705	1.51293	0
710	1.5128	0
715	1.51267	0
720	1.51255	0
725	1.51243	0
730	1.5123	0
735	1.51218	0
740	1.51207	0
745	1.51195	0
750	1.51184	0
755	1.51172	0
760	1.51161	0
765	1.5115	0
770	1.5114	0
775	1.51129	0
780	1.51118	0
785	1.51108	0
790	1.51098	0
795	1.51088	0
800	1.51078	0
805	1.51068	0
810	1.51058	0
815	1.51048	0
820	1.51039	0
825	1.51029	0
830	1.5102	0
835	1.51011	0
840	1.51002	0
845	1.50993	0
850	1.50984	0
855	1.50975	0
860	1.50966	0
865	1.50958	0
870	1.50949	0
875	1.50941	0
880	1.50932	0
885	1.50924	0
890	1.50916	0
895	1.50908	0
900	1.509	0
905	1.50892	0
910	1.50884	0
915	1.50876	0
920	1.50868	0
925	1.5086	0
930	1.50853	0
935	1.50845	0
940	1.50837	0
945	1.5083	0
950	1.50822	0
955	1.50815	0
960	1.50808	0
965	1.508	0
970	1.50793	0
975	1.50786	0
980	1.50779	0
985	1.50771	0
990	1.50764	0
995	1.50757	0
1000	1.5075	0
1005	1.50743	0
1010	1.50736	0
1015	1.50729	0
1020	1.50723	0
1025	1.50716	0
1030	1.50709	0
1035	1.50702	0
1040	1.50695	0
1045	1.50689	0
1050	1.50682	0
1055	1.50675	0
1060	1.50669	0
1065	1.50662	0
1070	1.50656	0
1075	1.50649	0
1080	1.50643	0
1085	1.50636	0
1090	1.5063	0
1095	1.50623	0
1100	1.50617	0
1105	1.5061	0
1110	1.50604	0
1115	1.50598	0
1120	1.50591	0
1125	1.50585	0
1130	1.50579	0
1135	1.50572	0
1140	1.50566	0
1145	1.5056	0
1150	1.50553	0
1155	1.50547	0
1160	1.50541	0
1165	1.50535	0
1170	1.50529	0
1175	1.50522	0
1180	1.50516	0
1185	1.5051	0
1190	1.50504	0
1195	1.50498	0
1200	1.50492	0
1205	1.50486	0
1210	1.50479	0
1215	1.50473	0
1220	1.50467	0
1225	1.50461	0
1230	1.50455	0
1235	1.50449	0
1240	1.50443	0
1245	1.50437	0
1250	1.50431	0
1255	1.50425	0
1260	1.50419	0
1265	1.50413	0
1270	1.50407	0
1275	1.50401	0
1280	1.50394	0
1285	1.50388	0
1290	1.50382	0
1295	1.50376	0
1300	1.5037	0
1305	1.50364	0
1310	1.50358	0
1315	1.50352	0
1320	1.50346	0
1325	1.5034	0
1330	1.50334	0
1335	1.50328	0
1340	1.50322	0
1345	1.50316	0
1350	1.5031	0
1355	1.50304	0
1360	1.50298	0
1365	1.50292	0
1370	1.50286	0
1375	1.5028	0
1380	1.50274	0
1385	1.50268	0
1390	1.50262	0
1395	1.50256	0
1400	1.5025	0
1405	1.50244	0
1410	1.50238	0
1415	1.50231	0
1420	1.50225	0
1425	1.50219	0
1430	1.50213	0
1435	1.50207	0
1440	1.50201	0
1445	1.50195	0
1450	1.50189	0
1455	1.50183	0
1460	1.50177	0
1465	1.5017	0
1470	1.50164	0
1475	1.50158	0
1480	1.50152	0
1485	1.50146	0
1490	1.5014	0
1495	1.50134	0
1500	1.50127	0
1505	1.50121	0
1510	1.50115	0
1515	1.50109	0
1520	1.50103	0
1525	1.50096	0
1530	1.5009	0
1535	1.50084	0
1540	1.50078	0
1545	1.50071	0
1550	1.50065	0
1555	1.50059	0
1560	1.50053	0
1565	1.50046	0
1570	1.5004	0
1575	1.50034	0
1580	1.50027	0
1585	1.50021	0
1590	1.50015	0
1595	1.50008	0
1600	1.50002	0
1605	1.49996	0
1610	1.49989	0
1615	1.49983	0
1620	1.49977	0
1625	1.4997	0
1630	1.49964	0
1635	1.49957	0
1640	1.49951	0
1645	1.49944	0
1650	1.49938	0
1655	1.49931	0
1660	1.49925	0
1665	1.49918	0
1670	1.49912	0
1675	1.49905	0
1680	1.49899	0
1685	1.49892	0
1690	1.49886	0
1695	1.49879	0
1700	1.49872	0
1705	1.49866	0
1710	1.49859	0
1715	1.49853	0
1720	1.49846	0
1725	1.49839	0
1730	1.49833	0
1735	1.49826	0
1740	1.49819	0
1745	1.49813	0
1750	1.49806	0
1755	1.49799	0
1760	1.49792	0
1765	1.49786	0
1770	1.49779	0
1775	1.49772	0
1780	1.49765	0
1785	1.49758	0
1790	1.49751	0
1795	1.49745	0
1800	1.49738	0
1805	1.49731	0
1810	1.49724	0
1815	1.49717	0
1820	1.4971	0
1825	1.49703	0
1830	1.49696	0
1835	1.49689	0
1840	1.49682	0
1845	1.49675	0
1850	1.49668	0
1855	1.49661	0
1860	1.49654	0
1865	1.49647	0
1870	1.4964	0
1875	1.49633	0
1880	1.49626	0
1885	1.49619	0
1890	1.49612	0
1895	1.49604	0
1900	1.49597	0
1905	1.4959	0
1910	1.49583	0
1915	1.49576	0
1920	1.49568	0
1925	1.49561	0
1930	1.49554	0
1935	1.49546	0
1940	1.49539	0
1945	1.49532	0
1950	1.49525	0
1955	1.49517	0
1960	1.4951	0
1965	1.49502	0
1970	1.49495	0
1975	1.49488	0
1980	1.4948	0
1985	1.49473	0
1990	1.49465	0
1995	1.49458	0
2000	1.4945	0
2005	1.49443	0
2010	1.49435	0
2015	1.49428	0
2020	1.4942	0
2025	1.49412	0
2030	1.49405	0
2035	1.49397	0
2040	1.49389	0
2045	1.49382	0
2050	1.49374	0
2055	1.49366	0
2060	1.49359	0
2065	1.49351	0
2070	1.49343	0
2075	1.49335	0
2080	1.49328	0
2085	1.4932	0
2090	1.49312	0
2095	1.49304	0
2100	1.49296	0
2105	1.49288	0
2110	1.4928	0
2115	1.49272	0
2120	1.49264	0
2125	1.49257	0
2130	1.49249	0
2135	1.49241	0
2140	1.49233	0
2145	1.49224	0
2150	1.49216	0
2155	1.49208	0
2160	1.492	0
2165	1.49192	0
2170	1.49184	0
2175	1.49176	0
2180	1.49168	0
2185	1.49159	0
2190	1.49151	0
2195	1.49143	0
2200	1.49135	0
2205	1.49126	0
2210	1.49118	0
2215	1.4911	0
2220	1.49102	0
2225	1.49093	0
2230	1.49085	0
2235	1.49076	0
2240	1.49068	0
2245	1.4906	0
2250	1.49051	0
2255	1.49043	0
2260	1.49034	0
2265	1.49026	0
2270	1.49017	0
2275	1.49009	0
2280	1.49	0
2285	1.48991	0
2290	1.48983	0
2295	1.48974	0
2300	1.48965	0
2305	1.48957	0
2310	1.48948	0
2315	1.48939	0
2320	1.48931	0
2325	1.48922	0
2330	1.48913	0
2335	1.48904	0
2340	1.48895	0
2345	1.48887	0
2350	1.48878	0
2355	1.48869	0
2360	1.4886	0
2365	1.48851	0
2370	1.48842	0
2375	1.48833	0
2380	1.48824	0
2385	1.48815	0
2390	1.48806	0
2395	1.48797	0
2400	1.48788	0
2405	1.48779	0
2410	1.4877	0
2415	1.48761	0
2420	1.48751	0
2425	1.48742	0
2430	1.48733	0
2435	1.48724	0
2440	1.48715	0
2445	1.48705	0
2450	1.48696	0
2455	1.48687	0
2460	1.48677	0
2465	1.48668	0
2470	1.48659	0
2475	1.48649	0
2480	1.4864	0
2485	1.4863	0
2490	1.48621	0
2495	1.48611	0
2500	1.48602	0
